Theta [deg.]  Phi   [deg.]  Abs(Dir.)[      ]   Abs(Theta)[      ]  Phase(Theta)[deg.]  Abs(Phi  )[      ]  Phase(Phi  )[deg.]  Ax.Ratio[      ]    
------------------------------------------------------------------------------------------------------------------------------------------------------
   0.000          90.000            4.273e-09           4.270e-09             109.035           2.672e-12             189.857           4.049e+01     
   1.000          90.000            6.927e-04           6.927e-04             274.007           2.604e-12             190.124           1.000e+02     
   2.000          90.000            2.773e-03           2.773e-03             274.013           2.535e-12             190.396           1.000e+02     
   3.000          90.000            6.228e-03           6.228e-03             273.998           2.466e-12             190.674           1.000e+02     
   4.000          90.000            1.103e-02           1.103e-02             273.972           2.395e-12             190.958           1.000e+02     
   5.000          90.000            1.716e-02           1.716e-02             273.937           2.325e-12             191.249           1.000e+02     
   6.000          90.000            2.457e-02           2.457e-02             273.892           2.254e-12             191.547           1.000e+02     
   7.000          90.000            3.321e-02           3.321e-02             273.838           2.182e-12             191.853           1.000e+02     
   8.000          90.000            4.303e-02           4.303e-02             273.775           2.111e-12             192.167           1.000e+02     
   9.000          90.000            5.395e-02           5.395e-02             273.702           2.040e-12             192.489           1.000e+02     
  10.000          90.000            6.590e-02           6.590e-02             273.620           1.968e-12             192.822           1.000e+02     
  11.000          90.000            7.879e-02           7.879e-02             273.528           1.897e-12             193.164           1.000e+02     
  12.000          90.000            9.254e-02           9.254e-02             273.425           1.826e-12             193.518           1.000e+02     
  13.000          90.000            1.070e-01           1.070e-01             273.311           1.755e-12             193.884           1.000e+02     
  14.000          90.000            1.222e-01           1.222e-01             273.186           1.684e-12             194.263           1.000e+02     
  15.000          90.000            1.378e-01           1.378e-01             273.049           1.614e-12             194.656           1.000e+02     
  16.000          90.000            1.538e-01           1.538e-01             272.899           1.545e-12             195.064           1.000e+02     
  17.000          90.000            1.701e-01           1.701e-01             272.736           1.476e-12             195.490           1.000e+02     
  18.000          90.000            1.865e-01           1.865e-01             272.558           1.408e-12             195.934           1.000e+02     
  19.000          90.000            2.028e-01           2.028e-01             272.366           1.340e-12             196.398           1.000e+02     
  20.000          90.000            2.189e-01           2.189e-01             272.156           1.274e-12             196.884           1.000e+02     
  21.000          90.000            2.347e-01           2.347e-01             271.930           1.209e-12             197.394           1.000e+02     
  22.000          90.000            2.499e-01           2.499e-01             271.684           1.145e-12             197.931           1.000e+02     
  23.000          90.000            2.644e-01           2.644e-01             271.417           1.082e-12             198.496           1.000e+02     
  24.000          90.000            2.781e-01           2.781e-01             271.128           1.020e-12             199.095           1.000e+02     
  25.000          90.000            2.907e-01           2.907e-01             270.815           9.594e-13             199.728           1.000e+02     
  26.000          90.000            3.022e-01           3.022e-01             270.475           9.005e-13             200.402           1.000e+02     
  27.000          90.000            3.123e-01           3.123e-01             270.105           8.431e-13             201.119           1.000e+02     
  28.000          90.000            3.209e-01           3.209e-01             269.703           7.873e-13             201.886           1.000e+02     
  29.000          90.000            3.278e-01           3.278e-01             269.265           7.332e-13             202.707           1.000e+02     
  30.000          90.000            3.330e-01           3.330e-01             268.787           6.809e-13             203.590           1.000e+02     
  31.000          90.000            3.363e-01           3.363e-01             268.263           6.304e-13             204.542           1.000e+02     
  32.000          90.000            3.376e-01           3.376e-01             267.689           5.818e-13             205.572           1.000e+02     
  33.000          90.000            3.369e-01           3.369e-01             267.058           5.351e-13             206.690           1.000e+02     
  34.000          90.000            3.341e-01           3.341e-01             266.362           4.905e-13             207.908           1.000e+02     
  35.000          90.000            3.292e-01           3.292e-01             265.592           4.481e-13             209.240           1.000e+02     
  36.000          90.000            3.222e-01           3.222e-01             264.738           4.077e-13             210.701           1.000e+02     
  37.000          90.000            3.132e-01           3.132e-01             263.785           3.696e-13             212.312           1.000e+02     
  38.000          90.000            3.021e-01           3.021e-01             262.717           3.338e-13             214.093           1.000e+02     
  39.000          90.000            2.893e-01           2.893e-01             261.517           3.003e-13             216.071           1.000e+02     
  40.000          90.000            2.747e-01           2.747e-01             260.159           2.692e-13             218.276           1.000e+02     
  41.000          90.000            2.587e-01           2.587e-01             258.614           2.404e-13             220.741           1.000e+02     
  42.000          90.000            2.415e-01           2.415e-01             256.847           2.142e-13             223.507           1.000e+02     
  43.000          90.000            2.233e-01           2.233e-01             254.810           1.904e-13             226.617           1.000e+02     
  44.000          90.000            2.046e-01           2.046e-01             252.448           1.691e-13             230.119           1.000e+02     
  45.000          90.000            1.857e-01           1.857e-01             249.689           1.504e-13             234.060           1.000e+02     
  46.000          90.000            1.670e-01           1.670e-01             246.443           1.342e-13             238.485           1.000e+02     
  47.000          90.000            1.490e-01           1.490e-01             242.602           1.206e-13             243.426           1.000e+02     
  48.000          90.000            1.322e-01           1.322e-01             238.036           1.096e-13             248.892           1.000e+02     
  49.000          90.000            1.171e-01           1.171e-01             232.603           1.012e-13             254.858           1.000e+02     
  50.000          90.000            1.044e-01           1.044e-01             226.166           9.538e-14             261.248           1.000e+02     
  51.000          90.000            9.458e-02           9.458e-02             218.641           9.215e-14             267.938           1.000e+02     
  52.000          90.000            8.826e-02           8.826e-02             210.064           9.150e-14             274.758           1.000e+02     
  53.000          90.000            8.605e-02           8.605e-02             200.666           9.342e-14             281.519           1.000e+02     
  54.000          90.000            8.858e-02           8.858e-02             190.888           9.789e-14             288.040           1.000e+02     
  55.000          90.000            9.643e-02           9.643e-02             181.290           1.049e-13             294.177           1.000e+02     
  56.000          90.000            1.102e-01           1.102e-01             172.376           1.144e-13             299.837           1.000e+02     
  57.000          90.000            1.304e-01           1.304e-01             164.457           1.264e-13             304.977           1.000e+02     
  58.000          90.000            1.575e-01           1.575e-01             157.634           1.408e-13             309.594           1.000e+02     
  59.000          90.000            1.921e-01           1.921e-01             151.857           1.576e-13             313.713           1.000e+02     
  60.000          90.000            2.344e-01           2.344e-01             147.003           1.768e-13             317.374           1.000e+02     
  61.000          90.000            2.848e-01           2.848e-01             142.929           1.983e-13             320.627           1.000e+02     
  62.000          90.000            3.435e-01           3.435e-01             139.497           2.221e-13             323.524           1.000e+02     
  63.000          90.000            4.106e-01           4.106e-01             136.594           2.481e-13             326.098           1.000e+02     
  64.000          90.000            4.862e-01           4.862e-01             134.121           2.762e-13             328.396           1.000e+02     
  65.000          90.000            5.702e-01           5.702e-01             132.002           3.065e-13             330.456           1.000e+02     
  66.000          90.000            6.623e-01           6.623e-01             130.175           3.388e-13             332.310           1.000e+02     
  67.000          90.000            7.622e-01           7.622e-01             128.589           3.730e-13             333.983           1.000e+02     
  68.000          90.000            8.695e-01           8.695e-01             127.205           4.092e-13             335.501           1.000e+02     
  69.000          90.000            9.836e-01           9.836e-01             125.993           4.473e-13             336.883           1.000e+02     
  70.000          90.000            1.104e+00           1.104e+00             124.925           4.871e-13             338.145           1.000e+02     
  71.000          90.000            1.229e+00           1.229e+00             123.982           5.287e-13             339.303           1.000e+02     
  72.000          90.000            1.359e+00           1.359e+00             123.147           5.720e-13             340.370           1.000e+02     
  73.000          90.000            1.492e+00           1.492e+00             122.405           6.168e-13             341.356           1.000e+02     
  74.000          90.000            1.628e+00           1.628e+00             121.744           6.632e-13             342.270           1.000e+02     
  75.000          90.000            1.764e+00           1.764e+00             121.156           7.111e-13             343.121           1.000e+02     
  76.000          90.000            1.900e+00           1.900e+00             120.633           7.604e-13             343.915           1.000e+02     
  77.000          90.000            2.035e+00           2.035e+00             120.166           8.110e-13             344.658           1.000e+02     
  78.000          90.000            2.166e+00           2.166e+00             119.752           8.630e-13             345.357           1.000e+02     
  79.000          90.000            2.293e+00           2.293e+00             119.385           9.161e-13             346.014           1.000e+02     
  80.000          90.000            2.415e+00           2.415e+00             119.060           9.704e-13             346.636           1.000e+02     
  81.000          90.000            2.530e+00           2.530e+00             118.775           1.026e-12             347.224           1.000e+02     
  82.000          90.000            2.636e+00           2.636e+00             118.527           1.082e-12             347.782           1.000e+02     
  83.000          90.000            2.734e+00           2.734e+00             118.313           1.140e-12             348.313           1.000e+02     
  84.000          90.000            2.820e+00           2.820e+00             118.132           1.198e-12             348.819           1.000e+02     
  85.000          90.000            2.895e+00           2.895e+00             117.981           1.258e-12             349.303           1.000e+02     
  86.000          90.000            2.958e+00           2.958e+00             117.859           1.318e-12             349.766           1.000e+02     
  87.000          90.000            3.007e+00           3.007e+00             117.765           1.379e-12             350.209           1.000e+02     
  88.000          90.000            3.043e+00           3.043e+00             117.699           1.440e-12             350.635           1.000e+02     
  89.000          90.000            3.065e+00           3.065e+00             117.660           1.503e-12             351.045           1.000e+02     
  90.000          90.000            3.072e+00           3.072e+00             117.646           1.566e-12             351.441           1.000e+02     
  91.000          90.000            3.065e+00           3.065e+00             117.660           1.629e-12             351.821           1.000e+02     
  92.000          90.000            3.043e+00           3.043e+00             117.699           1.693e-12             352.188           1.000e+02     
  93.000          90.000            3.007e+00           3.007e+00             117.766           1.758e-12             352.542           1.000e+02     
  94.000          90.000            2.958e+00           2.958e+00             117.859           1.822e-12             352.885           1.000e+02     
  95.000          90.000            2.895e+00           2.895e+00             117.981           1.888e-12             353.217           1.000e+02     
  96.000          90.000            2.820e+00           2.820e+00             118.132           1.953e-12             353.538           1.000e+02     
  97.000          90.000            2.733e+00           2.733e+00             118.314           2.019e-12             353.850           1.000e+02     
  98.000          90.000            2.636e+00           2.636e+00             118.527           2.085e-12             354.152           1.000e+02     
  99.000          90.000            2.530e+00           2.530e+00             118.776           2.151e-12             354.445           1.000e+02     
 100.000          90.000            2.415e+00           2.415e+00             119.060           2.217e-12             354.730           1.000e+02     
 101.000          90.000            2.293e+00           2.293e+00             119.385           2.284e-12             355.006           1.000e+02     
 102.000          90.000            2.166e+00           2.166e+00             119.752           2.350e-12             355.275           1.000e+02     
 103.000          90.000            2.034e+00           2.034e+00             120.167           2.416e-12             355.536           1.000e+02     
 104.000          90.000            1.900e+00           1.900e+00             120.633           2.481e-12             355.789           1.000e+02     
 105.000          90.000            1.764e+00           1.764e+00             121.157           2.547e-12             356.036           1.000e+02     
 106.000          90.000            1.627e+00           1.627e+00             121.745           2.612e-12             356.277           1.000e+02     
 107.000          90.000            1.492e+00           1.492e+00             122.405           2.677e-12             356.510           1.000e+02     
 108.000          90.000            1.359e+00           1.359e+00             123.147           2.741e-12             356.738           1.000e+02     
 109.000          90.000            1.229e+00           1.229e+00             123.983           2.805e-12             356.960           1.000e+02     
 110.000          90.000            1.104e+00           1.104e+00             124.926           2.868e-12             357.176           1.000e+02     
 111.000          90.000            9.835e-01           9.835e-01             125.994           2.931e-12             357.387           1.000e+02     
 112.000          90.000            8.694e-01           8.694e-01             127.207           2.992e-12             357.593           1.000e+02     
 113.000          90.000            7.621e-01           7.621e-01             128.590           3.053e-12             357.794           1.000e+02     
 114.000          90.000            6.622e-01           6.622e-01             130.176           3.113e-12             357.991           1.000e+02     
 115.000          90.000            5.701e-01           5.701e-01             132.004           3.171e-12             358.183           1.000e+02     
 116.000          90.000            4.861e-01           4.861e-01             134.124           3.229e-12             358.371           1.000e+02     
 117.000          90.000            4.106e-01           4.106e-01             136.596           3.285e-12             358.555           1.000e+02     
 118.000          90.000            3.434e-01           3.434e-01             139.500           3.340e-12             358.735           1.000e+02     
 119.000          90.000            2.847e-01           2.847e-01             142.933           3.394e-12             358.912           1.000e+02     
 120.000          90.000            2.343e-01           2.343e-01             147.008           3.447e-12             359.086           1.000e+02     
 121.000          90.000            1.920e-01           1.920e-01             151.863           3.498e-12             359.257           1.000e+02     
 122.000          90.000            1.575e-01           1.575e-01             157.641           3.547e-12             359.425           1.000e+02     
 123.000          90.000            1.303e-01           1.303e-01             164.466           3.594e-12             359.590           1.000e+02     
 124.000          90.000            1.102e-01           1.102e-01             172.387           3.640e-12             359.753           1.000e+02     
 125.000          90.000            9.641e-02           9.641e-02             181.303           3.684e-12             359.915           1.000e+02     
 126.000          90.000            8.857e-02           8.857e-02             190.902           3.726e-12               0.074           1.000e+02     
 127.000          90.000            8.606e-02           8.606e-02             200.681           3.766e-12               0.231           1.000e+02     
 128.000          90.000            8.827e-02           8.827e-02             210.079           3.805e-12               0.388           1.000e+02     
 129.000          90.000            9.460e-02           9.460e-02             218.655           3.841e-12               0.542           1.000e+02     
